Sensor Position (Degrees)	Light Intensity (Volts)
180.00000	3.70637
180.00000	3.71169
180.00000	3.70669
180.00000	3.70911
180.00000	3.70895
180.00000	3.70798
180.00000	3.70927
180.00000	3.72522
180.00000	3.72087
180.00000	3.71733
180.00000	3.71781
180.00000	3.71120
180.00000	3.71088
180.00000	3.69977
180.00000	3.71410
180.00000	3.70170
180.00000	3.69832
180.00000	3.69558
180.00000	3.68704
180.00000	3.69026
180.00000	3.68075
180.00000	3.68575
180.00000	3.69235
180.00000	3.69010
180.00000	3.70025
180.00000	3.69993
180.00000	3.70218
180.00000	3.70138
179.98333	3.70637
179.98333	3.70718
179.98333	3.69622
179.98333	3.70782
179.98333	3.69912
179.98333	3.70009
179.98333	3.70959
179.98333	3.70798
179.98333	3.72280
179.98333	3.73215
179.98333	3.73586
179.98333	3.74021
179.96667	3.74423
179.96667	3.73843
179.96667	3.73682
179.96667	3.73553
179.96667	3.75229
179.95000	3.75084
179.95000	3.76276
179.91667	3.76921
179.46667	3.79241
178.08333	0.19475
177.03333	0.04347
176.93333	0.03944
176.95000	0.03847
176.95000	0.03751
176.95000	0.04025
176.96667	0.04121
176.96667	0.03815
176.96667	0.04153
176.96667	0.04121
176.96667	0.03573
176.96667	0.04170
176.96667	0.03557
176.96667	0.03847
176.96667	0.03767
176.96667	0.03283
176.96667	0.03928
176.96667	0.03541
176.96667	0.04218
176.96667	0.03622
176.96667	0.03203
176.96667	0.03557
176.96667	0.03767
176.96667	0.04315
176.96667	0.11742
176.96667	0.23181
176.96667	1.19510
176.96667	2.43969
176.96667	2.94156
176.96667	2.42487
176.96667	2.45451
176.96667	2.68217
176.96667	2.85794
176.96667	2.86487
176.96667	2.92529
176.96667	2.86938
176.96667	2.76804
176.96667	2.77690
176.96667	2.78898
176.96667	2.78222
176.96667	2.93012
176.96667	2.92078
176.96667	2.91449
176.96667	2.91771
176.96667	2.91836
176.96667	2.92738
176.96667	2.92899
176.96667	2.93044
176.96667	2.91997
176.96667	2.92754
176.96667	2.91063
176.96667	2.91836
176.96667	2.91610
176.96667	2.91079
176.95000	2.90241
176.95000	2.89677
176.95000	2.90724
176.95000	2.91546
176.95000	2.91723
176.93333	2.91610
176.93333	2.91933
176.93333	2.92303
176.93333	2.92770
176.91667	2.92416
176.91667	2.92593
176.91667	2.93302
176.91667	2.93785
176.90000	2.93109
176.90000	2.93721
176.90000	2.92932
176.88333	2.94591
176.88333	2.93528
176.86667	2.94172
176.86667	2.94059
176.86667	2.93673
176.85000	2.94011
176.85000	2.93350
176.85000	2.94301
176.83333	2.94140
176.83333	2.93995
176.81667	2.94462
176.80000	2.93721
176.80000	2.92899
176.78333	2.91723
176.76667	2.92754
176.75000	2.91997
176.23333	3.00359
175.46667	2.95928
175.33333	2.77706
175.33333	2.67959
175.35000	2.66573
175.35000	2.65172
175.36667	2.64865
175.36667	2.63238
175.38333	2.64479
175.40000	2.64350
175.40000	2.64511
175.40000	2.64865
175.40000	2.71229
175.40000	2.93947
175.41667	2.91626
175.41667	2.89677
175.41667	2.87486
175.41667	2.87663
175.41667	2.61047
175.41667	1.91575
175.41667	1.94910
175.41667	2.12488
175.41667	2.22976
175.41667	2.45419
175.41667	2.68813
175.41667	2.64253
175.41667	2.64672
175.41667	2.66734
175.41667	2.87695
175.41667	2.90789
175.41667	2.86954
175.41667	2.86551
175.41667	2.85569
175.41667	2.84666
175.41667	2.83426
175.41667	2.82072
175.41667	2.82507
175.41667	2.81621
175.41667	2.80010
175.41667	2.80204
175.40000	2.81879
175.40000	2.82024
175.40000	2.84715
175.40000	2.83249
175.40000	2.84151
175.40000	2.83394
175.38333	2.85649
175.38333	2.85279
175.36667	2.87003
175.35000	2.86809
175.35000	2.87228
175.33333	2.87566
175.33333	2.88130
175.31667	2.87486
175.30000	2.87325
175.26667	2.88275
175.11667	2.90241
174.48333	2.87889
174.23333	2.88598
174.23333	2.89500
174.25000	2.89951
174.25000	2.89081
174.25000	2.89161
174.25000	2.89596
174.26667	2.87486
174.28333	2.85456
174.28333	2.85842
174.28333	2.83216
174.28333	2.82572
174.28333	2.83684
174.28333	2.83619
174.28333	2.83394
174.28333	2.83458
174.28333	2.83667
174.28333	2.73131
174.28333	2.18094
174.28333	1.42178
174.28333	1.10471
174.28333	1.23650
174.28333	1.44047
174.28333	1.46721
174.28333	1.46915
174.28333	1.38215
174.28333	1.47591
174.28333	1.91607
174.28333	1.87322
174.28333	1.84808
174.28333	1.76398
174.28333	1.90528
174.28333	2.13486
174.28333	2.11505
174.28333	2.10248
174.30000	2.09314
174.30000	2.09652
174.30000	2.07493
174.30000	2.08299
174.30000	2.07380
174.30000	2.06478
174.30000	2.06188
174.28333	2.05689
174.28333	2.07042
174.28333	2.06333
174.28333	2.06865
174.28333	2.07799
174.28333	2.09265
174.28333	2.09958
174.28333	2.10168
174.26667	2.10361
174.26667	2.12004
174.26667	2.10361
174.25000	2.12117
174.25000	2.13051
174.25000	2.13084
174.25000	2.15033
174.25000	2.14066
174.23333	2.14824
174.23333	2.14888
174.23333	2.17224
174.23333	2.15533
174.23333	2.17144
174.23333	2.16209
174.23333	2.16258
174.21667	2.14985
174.21667	2.15839
174.21667	2.17240
174.21667	2.17772
174.20000	2.16435
174.20000	2.16805
174.20000	2.16644
174.20000	2.16822
174.20000	2.17965
174.18333	2.17595
174.18333	2.16950
174.18333	2.19544
174.16667	2.18594
174.16667	2.20382
174.15000	2.22509
174.11667	2.23314
173.45000	2.63657
172.76667	2.68474
172.73333	2.66283
172.73333	2.65655
172.73333	2.64253
172.73333	2.65349
172.75000	2.64624
172.75000	2.63319
172.76667	2.61627
172.76667	2.58195
172.76667	2.59887
172.76667	2.60177
172.76667	2.60274
172.76667	2.59565
172.76667	2.59484
172.76667	2.60032
172.76667	2.59887
172.76667	2.59613
172.76667	2.60064
172.76667	2.59678
172.76667	2.59452
172.76667	2.61385
172.76667	2.64930
172.76667	2.63641
172.76667	2.63883
172.76667	2.66944
172.76667	2.67024
172.76667	2.57615
172.76667	2.45564
172.76667	2.47675
172.76667	2.42729
172.76667	2.40827
172.76667	2.42455
172.76667	2.43631
172.76667	2.45194
172.76667	2.52959
172.76667	2.59533
172.78333	2.60193
172.78333	2.59436
172.78333	2.60016
172.78333	2.59114
172.78333	2.58775
172.78333	2.57841
172.78333	2.56069
172.78333	2.55891
172.78333	2.56053
172.78333	2.57454
172.78333	2.55891
172.78333	2.55666
172.78333	2.56488
172.76667	2.57229
172.76667	2.56745
172.76667	2.57776
172.76667	2.56649
172.76667	2.57841
172.75000	2.55859
172.75000	2.56423
172.75000	2.56020
172.75000	2.57132
172.73333	2.58856
172.73333	2.58856
172.73333	2.59823
172.73333	2.59968
172.71667	2.60838
172.71667	2.61031
172.70000	2.61063
172.70000	2.61869
172.70000	2.62497
172.68333	2.62771
172.68333	2.62320
172.66667	2.61675
172.66667	2.62852
172.65000	2.63270
172.63333	2.64898
172.61667	2.64173
172.50000	2.65607
171.81667	2.34173
171.40000	0.90912
171.40000	0.64877
171.41667	0.61622
171.41667	0.58561
171.41667	0.59737
171.43333	0.63427
171.45000	0.65473
171.45000	0.76090
171.45000	0.65698
171.45000	0.41596
171.45000	0.49345
171.45000	0.49668
171.46667	0.60478
171.46667	0.90461
171.46667	0.78168
171.46667	1.60094
171.46667	2.25409
171.46667	2.35720
171.45000	2.46031
171.45000	2.47030
171.45000	2.47562
171.45000	2.47046
171.45000	2.44855
171.45000	2.44017
171.45000	2.42197
171.45000	2.41407
171.45000	2.42326
171.45000	2.37943
171.45000	2.21284
171.45000	1.61350
171.45000	1.64669
171.45000	1.82698
171.45000	1.85050
171.45000	1.96844
171.45000	2.04158
171.45000	2.02789
171.45000	2.01999
171.45000	2.03916
171.45000	2.15629
171.46667	2.23701
171.46667	2.24781
171.46667	2.24652
171.46667	2.25167
171.46667	2.24603
171.46667	2.23782
171.46667	2.24055
171.45000	2.23749
171.45000	2.23588
171.43333	2.24265
171.43333	2.22460
171.41667	2.24120
171.40000	2.25506
171.40000	2.26424
171.38333	2.26698
171.35000	2.28696
171.31667	2.31579
171.13333	2.39265
170.58333	2.40570
170.31667	2.27407
170.31667	2.26086
170.31667	2.24926
170.31667	2.24249
170.33333	2.25199
170.33333	2.24023
170.33333	2.23008
170.33333	2.24007
170.35000	2.23024
170.35000	2.21832
170.35000	2.21188
170.35000	2.21429
170.35000	2.20753
170.35000	2.20302
170.35000	2.20769
170.35000	2.21349
170.35000	2.21268
170.35000	2.20785
170.35000	2.21429
170.35000	2.21155
170.35000	2.21333
170.35000	2.21864
170.35000	2.21993
170.35000	2.24168
170.35000	2.32562
170.35000	1.93235
170.35000	1.98116
170.35000	1.89207
170.35000	1.92767
170.35000	1.99067
170.35000	1.99083
170.35000	2.03626
170.35000	2.04770
170.35000	2.05850
170.35000	2.33835
170.35000	2.33384
170.35000	2.32578
170.35000	2.31579
170.35000	2.33013
170.35000	2.32482
170.35000	2.30919
170.35000	2.32466
170.35000	2.32256
170.35000	2.33722
170.35000	2.34270
170.35000	2.34673
170.35000	2.35785
170.35000	2.36332
170.33333	2.36622
170.33333	2.36493
170.33333	2.36510
170.31667	2.36638
170.31667	2.36912
170.31667	2.36719
170.30000	2.37106
170.30000	2.36381
170.30000	2.36735
170.28333	2.36091
170.28333	2.36687
170.28333	2.35607
170.26667	2.36558
170.26667	2.35188
170.26667	2.35930
170.25000	2.35752
170.25000	2.35108
170.23333	2.35366
170.21667	2.34915
170.13333	2.35076
169.43333	2.12616
169.06667	1.36217
169.06667	1.18237
169.08333	1.15788
169.08333	1.03286
169.08333	1.02867
169.08333	0.99806
169.08333	1.02706
169.10000	0.99226
169.10000	1.03028
169.10000	0.98549
169.10000	0.77427
169.10000	0.74495
169.10000	0.76364
169.10000	0.74737
169.10000	0.75349
169.10000	0.75639
169.10000	0.75607
169.10000	0.80794
169.10000	0.92169
169.10000	1.14225
169.10000	1.32382
169.10000	1.75544
169.10000	2.17982
169.10000	2.21429
169.10000	2.18932
169.10000	2.18352
169.10000	2.19367
169.10000	2.19593
169.10000	2.19593
169.10000	2.19206
169.10000	2.19335
169.10000	2.18175
169.10000	2.18626
169.10000	2.17853
169.10000	2.17369
169.10000	2.16403
169.10000	2.16467
169.10000	2.17402
169.10000	2.23234
169.10000	2.11344
169.10000	2.12600
169.11667	2.12343
169.11667	2.13293
169.11667	2.12649
169.11667	2.12697
169.11667	2.11618
169.11667	2.13019
169.11667	2.13196
169.11667	2.12939
169.11667	2.13341
169.11667	2.13486
169.11667	2.13486
169.11667	2.13277
169.11667	2.13470
169.11667	2.13277
169.11667	2.13309
169.11667	2.14002
169.11667	2.13921
169.11667	2.14034
169.11667	2.15049
169.10000	2.15210
169.10000	2.15436
169.10000	2.16225
169.10000	2.15790
169.10000	2.16242
169.08333	2.17466
169.08333	2.17208
169.08333	2.17353
169.08333	2.17128
169.06667	2.17257
169.06667	2.17015
169.06667	2.17804
169.05000	2.16741
169.05000	2.16612
169.05000	2.16129
169.03333	2.15533
169.03333	2.16354
169.01667	2.16515
169.00000	2.15082
168.98333	2.14985
168.93333	2.11618
168.28333	0.69178
167.20000	0.02397
166.98333	0.01930
166.98333	0.01624
166.98333	0.01173
167.00000	0.01366
167.00000	0.01253
167.00000	0.01511
167.00000	0.01302
167.00000	0.01656
167.00000	0.01560
167.00000	0.01914
167.00000	0.01978
167.01667	0.01527
167.01667	0.01463
167.01667	0.02881
167.01667	0.04347
167.01667	0.06232
167.01667	0.18122
167.01667	0.43271
167.01667	0.42289
167.01667	0.40194
167.01667	0.41789
167.01667	0.46091
167.01667	0.49329
167.01667	0.86014
167.01667	1.99099
167.01667	2.06011
167.01667	2.02273
167.01667	2.01226
167.00000	2.02627
167.00000	1.97424
167.00000	1.87612
167.00000	1.85791
167.00000	1.84422
167.00000	1.86677
167.00000	1.88482
167.00000	1.89626
167.00000	1.98004
167.00000	2.03304
167.00000	2.05479
167.00000	2.05415
167.00000	2.06269
167.00000	2.05737
167.00000	1.99180
167.00000	1.74981
167.00000	1.78589
167.00000	1.85807
167.00000	1.87064
167.00000	1.86581
167.00000	1.85340
167.00000	1.83407
167.01667	1.86468
167.01667	1.91736
167.01667	2.03207
167.01667	2.03111
167.01667	2.03465
167.01667	2.03465
167.01667	2.03562
167.01667	2.04061
167.01667	2.03417
167.01667	2.03449
167.01667	2.03723
167.01667	2.03642
167.01667	2.02917
167.01667	2.04174
167.01667	2.02998
167.01667	2.02692
167.01667	2.03143
167.01667	2.03207
167.01667	2.03191
167.01667	2.03046
167.01667	2.02837
167.01667	2.01951
167.01667	2.01596
167.00000	2.02144
167.00000	2.01709
167.00000	2.01387
167.00000	2.01902
167.00000	2.00356
166.98333	2.01113
166.96667	1.98358
166.78333	2.01306
165.41667	0.59898
163.80000	0.01769
163.48333	0.00996
163.50000	0.01253
163.50000	0.01060
163.50000	0.00963
163.50000	0.00609
163.50000	0.01237
163.51667	0.00867
163.51667	0.01366
163.51667	0.00915
163.51667	0.00818
163.51667	0.01108
163.51667	0.00915
163.51667	0.01479
163.51667	0.01350
163.51667	0.01237
163.51667	0.02542
163.51667	0.04717
163.51667	1.41824
163.51667	1.69599
163.51667	1.69036
163.51667	1.71098
163.51667	1.72064
163.51667	1.76334
163.51667	1.76076
163.51667	1.68327
163.51667	1.60658
163.51667	1.60577
163.51667	1.61318
163.51667	1.60867
163.51667	1.60319
163.51667	1.60416
163.51667	1.67247
163.51667	1.76576
163.51667	1.76849
163.51667	1.77558
163.51667	1.77381
163.51667	1.77284
163.51667	1.77107
163.51667	1.76269
163.51667	1.59224
163.51667	1.52409
163.51667	1.51990
163.51667	1.51023
163.51667	1.48349
163.51667	1.45739
163.51667	1.45578
163.51667	1.46947
163.51667	1.46544
163.51667	1.47495
163.51667	1.48703
163.51667	1.46786
163.51667	1.47108
163.51667	1.51974
163.51667	1.54987
163.51667	1.55792
163.51667	1.56179
163.51667	1.56308
163.51667	1.56227
163.51667	1.55985
163.51667	1.56630
163.51667	1.58499
163.51667	1.59788
163.51667	1.60223
163.51667	1.60062
163.51667	1.59949
163.51667	1.60029
163.51667	1.60190
163.51667	1.60207
163.51667	1.65684
163.51667	1.68987
163.51667	1.68407
163.51667	1.69261
163.51667	1.68713
163.51667	1.69261
163.51667	1.69277
163.51667	1.69245
163.51667	1.69503
163.51667	1.68488
163.51667	1.69454
163.51667	1.69761
163.51667	1.68359
163.50000	1.67602
163.50000	1.67005
163.50000	1.66361
163.50000	1.66345
163.48333	1.66103
163.48333	1.65604
163.48333	1.65265
163.48333	1.66039
163.48333	1.66506
163.48333	1.66232
163.48333	1.65845
163.48333	1.66200
163.48333	1.66087
163.46667	1.65298
163.46667	1.65797
163.46667	1.64782
163.46667	1.64734
163.46667	1.64734
163.46667	1.64540
163.45000	1.62575
163.45000	1.63703
163.45000	1.63300
163.45000	1.63123
163.45000	1.63010
163.45000	1.63284
163.43333	1.62978
163.43333	1.62382
163.43333	1.62994
163.43333	1.62768
163.43333	1.62140
163.43333	1.62527
163.41667	1.62398
163.41667	1.62688
163.41667	1.63493
163.41667	1.63139
163.40000	1.63848
163.40000	1.63203
163.40000	1.63187
163.40000	1.64573
163.38333	1.63397
163.36667	1.64138
163.35000	1.63622
162.46667	1.63993
161.11667	0.04975
160.95000	0.01479
160.96667	0.01318
160.96667	0.01688
160.96667	0.01995
160.98333	0.01592
160.98333	0.02140
160.98333	0.01560
160.98333	0.02075
160.98333	0.01688
160.98333	0.01801
160.98333	0.01624
160.98333	0.01318
160.98333	0.01705
160.98333	0.02059
160.98333	0.01688
160.98333	0.02043
160.98333	0.01882
160.98333	0.02011
160.98333	0.01640
160.98333	0.01882
160.98333	0.01737
160.98333	0.02011
160.98333	0.02123
160.98333	0.01801
160.98333	0.02172
160.98333	0.02059
160.98333	0.02091
160.98333	0.01817
160.98333	0.02140
160.98333	0.03219
160.98333	0.45253
160.98333	1.24746
160.98333	1.53408
160.98333	1.54181
160.98333	1.53698
160.98333	1.51958
160.98333	1.42275
160.98333	1.38988
160.98333	1.36394
160.98333	1.35927
160.98333	1.36861
160.98333	1.35975
160.98333	1.36636
160.98333	1.36265
160.98333	1.36136
160.98333	1.36926
160.98333	1.37022
160.98333	1.36636
160.98333	1.36958
160.98333	1.37651
161.00000	1.37667
161.00000	1.38617
161.00000	1.41405
161.00000	1.42613
161.00000	1.43805
161.00000	1.44917
161.00000	1.44128
161.00000	1.45964
161.00000	1.44756
161.00000	1.45239
161.00000	1.44998
161.00000	1.44853
161.00000	1.45110
161.00000	1.45030
161.00000	1.46689
161.00000	1.51410
161.00000	1.55003
161.00000	1.56743
161.00000	1.56710
161.00000	1.55567
161.00000	1.54278
161.00000	1.55035
161.00000	1.54922
161.00000	1.54890
161.00000	1.54310
161.00000	1.54197
161.00000	1.53826
161.00000	1.53778
161.00000	1.53730
161.00000	1.53843
161.00000	1.54310
161.00000	1.54310
160.98333	1.55035
160.98333	1.54326
160.98333	1.55309
160.98333	1.55325
160.98333	1.54745
160.96667	1.54729
160.96667	1.54696
160.95000	1.54455
160.93333	1.53988
160.86667	1.54793
159.91667	1.25342
158.60000	0.02140
158.33333	0.01366
158.33333	0.01350
158.35000	0.01962
158.35000	0.01672
158.35000	0.01302
158.35000	0.01608
158.35000	0.01608
158.35000	0.01479
158.35000	0.01076
158.35000	0.01286
158.35000	0.01350
158.35000	0.00963
158.35000	0.00464
158.35000	0.00722
158.35000	0.01157
158.35000	0.00963
158.35000	0.00883
158.35000	0.02204
158.35000	0.09083
158.35000	0.25227
158.35000	0.35119
158.35000	1.26180
158.35000	1.39745
158.35000	1.39745
158.35000	1.37780
158.35000	1.37635
158.35000	1.37651
158.35000	1.37135
158.35000	1.36056
158.35000	1.36668
158.35000	1.36829
158.35000	1.35911
158.35000	1.35315
158.35000	1.34960
158.35000	1.33849
158.35000	1.32221
158.35000	1.32689
158.35000	1.32560
158.35000	1.30787
158.35000	1.31061
158.35000	1.31577
158.35000	1.31061
158.35000	1.31883
158.35000	1.33043
158.35000	1.34332
158.35000	1.38988
158.35000	1.38182
158.35000	1.38505
158.35000	1.37619
158.35000	1.37876
158.35000	1.37828
158.35000	1.37683
158.35000	1.37651
158.35000	1.37490
158.35000	1.37586
158.35000	1.38166
158.33333	1.37248
158.33333	1.37635
158.33333	1.37393
158.33333	1.37715
158.31667	1.36797
158.31667	1.37731
158.30000	1.37361
158.25000	1.36217
157.45000	0.96213
156.16667	0.01672
155.71667	0.00899
155.73333	0.00335
155.73333	0.00738
155.73333	0.00255
155.73333	0.00287
155.75000	0.00722
155.75000	0.00931
155.75000	0.00512
155.75000	0.00383
155.75000	0.00899
155.75000	0.00786
155.75000	0.00706
155.75000	0.00770
155.75000	0.02043
155.75000	1.17560
155.75000	1.21685
155.75000	1.26727
155.75000	1.25068
155.75000	1.19783
155.75000	0.93442
155.75000	0.39743
155.75000	0.43851
155.75000	0.49168
155.75000	0.47251
155.75000	0.47235
155.75000	0.47750
155.75000	0.53438
155.75000	0.60011
155.75000	0.74656
155.75000	0.74801
155.75000	0.75155
155.75000	0.73947
155.75000	0.74302
155.75000	0.75671
155.75000	0.76170
155.75000	0.77862
155.75000	0.79006
155.75000	0.83855
155.75000	0.84629
155.75000	0.81906
155.75000	0.82454
155.75000	0.82776
155.75000	0.83549
155.75000	0.82405
155.75000	0.82212
155.75000	0.83243
155.75000	0.83614
155.75000	0.89591
155.75000	0.90638
155.75000	1.01739
155.75000	1.23892
155.75000	1.23425
155.75000	1.23215
155.75000	1.23908
155.75000	1.23409
155.75000	1.23135
155.75000	1.23521
155.75000	1.24069
155.75000	1.24681
155.75000	1.25841
155.75000	1.25584
155.75000	1.25406
155.75000	1.25793
155.75000	1.25503
155.75000	1.24939
155.75000	1.25374
155.75000	1.24601
155.75000	1.25149
155.75000	1.25116
155.75000	1.24520
155.75000	1.24375
155.73333	1.24697
155.73333	1.25116
155.73333	1.24987
155.73333	1.24262
155.73333	1.24778
155.71667	1.24359
155.71667	1.23344
155.70000	1.24246
155.70000	1.23908
155.70000	1.24279
155.68333	1.23183
155.68333	1.23827
155.66667	1.23119
155.66667	1.23940
155.65000	1.23280
155.65000	1.23231
155.63333	1.23650
155.61667	1.23167
155.60000	1.23682
155.36667	1.23972
154.61667	1.12179
154.08333	0.81761
154.06667	0.67825
154.06667	0.64377
154.08333	0.60784
154.08333	0.60253
154.08333	0.58819
154.08333	0.58416
154.08333	0.58529
154.08333	0.65376
154.08333	1.10358
154.08333	1.17641
154.08333	1.18060
154.08333	1.16738
154.08333	1.17383
154.08333	1.17254
154.08333	1.17399
154.08333	1.16175
154.08333	1.12517
154.08333	1.06105
154.08333	1.05622
154.08333	1.05396
154.08333	1.04768
154.08333	1.05235
154.08333	1.08667
154.08333	1.14580
154.08333	1.15627
154.08333	1.14902
154.08333	1.14692
154.08333	1.15160
154.08333	1.14386
154.08333	1.14821
154.08333	1.14306
154.08333	1.14531
154.08333	1.14225
154.08333	1.14644
154.08333	1.14096
154.08333	1.14064
154.08333	1.14692
154.08333	1.14741
154.08333	1.15031
154.08333	1.14306
154.08333	1.14161
154.06667	1.13935
154.06667	1.14483
154.06667	1.12968
154.06667	1.14032
154.05000	1.13226
154.05000	1.13258
154.05000	1.12936
154.03333	1.13097
154.03333	1.12775
154.03333	1.12501
154.03333	1.12743
154.01667	1.12759
154.01667	1.13532
154.01667	1.12952
154.00000	1.13677
154.00000	1.13726
153.98333	1.13774
153.98333	1.13581
153.96667	1.13420
153.96667	1.13403
153.96667	1.11986
153.95000	1.13565
153.95000	1.13790
153.93333	1.14000
153.90000	1.13758
153.81667	1.14016
153.18333	1.06701
152.66667	0.47493
152.66667	0.31510
152.66667	0.29480
152.66667	0.29367
152.66667	0.29964
152.66667	0.30560
152.66667	0.22826
152.66667	0.21554
152.66667	0.92636
152.66667	1.04848
152.66667	0.97437
152.66667	0.72272
152.66667	0.71160
152.66667	0.76042
152.66667	0.78909
152.66667	0.82953
152.66667	0.88689
152.66667	0.88689
152.66667	0.89591
152.66667	0.92926
152.66667	0.93603
152.66667	0.92991
152.66667	0.92797
152.66667	0.89366
152.68333	0.90252
152.68333	0.94151
152.68333	0.94859
152.68333	0.94859
152.68333	0.94940
152.68333	0.96003
152.68333	0.95874
152.68333	0.95198
152.68333	0.95536
152.68333	0.94795
152.68333	0.96132
152.68333	0.95520
152.70000	0.95794
152.70000	0.95198
152.70000	0.94972
152.68333	0.94795
152.68333	0.94972
152.68333	0.96551
152.68333	0.95971
152.68333	0.95504
152.68333	0.93667
152.68333	0.93812
152.66667	0.92733
152.66667	0.91444
152.65000	0.92153
152.63333	0.91073
152.61667	0.92072
152.41667	0.96100
151.31667	1.03431
150.21667	0.07021
150.05000	0.03622
150.05000	0.03348
150.05000	0.03187
150.05000	0.03380
150.06667	0.02784
150.06667	0.02768
150.06667	0.03106
150.06667	0.02575
150.06667	0.02397
150.06667	0.03332
150.06667	0.02865
150.06667	0.03332
150.06667	0.03380
150.06667	0.05781
150.06667	0.06602
150.06667	0.05845
150.06667	0.07021
150.06667	0.08955
150.06667	0.90236
150.06667	0.98275
150.06667	0.97357
150.06667	0.98001
150.06667	0.98791
150.06667	0.98339
150.06667	0.98694
150.06667	0.98388
150.06667	0.98484
150.06667	0.97888
150.06667	0.97631
150.06667	0.96616
150.06667	0.96390
150.06667	0.96261
150.06667	0.89736
150.06667	0.87803
150.06667	0.89656
150.06667	0.89720
150.06667	0.89092
150.06667	0.89301
150.06667	0.89446
150.06667	0.89752
150.06667	0.89752
150.06667	0.88882
150.06667	0.88786
150.06667	0.89124
150.06667	0.89011
150.06667	0.88850
150.06667	0.88786
150.06667	0.88254
150.06667	0.87916
150.05000	0.87706
150.05000	0.87384
150.05000	0.87368
150.05000	0.87319
150.03333	0.87577
150.03333	0.87867
150.03333	0.88173
150.03333	0.87996
150.01667	0.87207
150.01667	0.88496
150.01667	0.87980
150.01667	0.87964
150.00000	0.88238
150.00000	0.87754
149.98333	0.88173
149.98333	0.88044
149.96667	0.87980
149.95000	0.88608
149.75000	0.92040
148.90000	0.93039
148.35000	0.66085
148.35000	0.55387
148.35000	0.56789
148.35000	0.55323
148.35000	0.55355
148.36667	0.54114
148.36667	0.54984
148.36667	0.54195
148.36667	0.56821
148.36667	0.71692
148.36667	0.88028
148.36667	0.92588
148.36667	0.92024
148.36667	0.90944
148.36667	0.90316
148.36667	0.90058
148.36667	0.89011
148.36667	0.89414
148.36667	0.89269
148.36667	0.89849
148.36667	0.91831
148.36667	0.92411
148.36667	0.92781
148.36667	0.92942
148.36667	0.92684
148.36667	0.92765
148.36667	0.92507
148.36667	0.92459
148.38333	0.92024
148.38333	0.91460
148.38333	0.91557
148.38333	0.92153
148.38333	0.91814
148.38333	0.90751
148.38333	0.91379
148.38333	0.91750
148.38333	0.91814
148.38333	0.92668
148.38333	0.92636
148.38333	0.92556
148.38333	0.91734
148.38333	0.92668
148.36667	0.93119
148.36667	0.92298
148.35000	0.91798
148.35000	0.92104
148.33333	0.92829
148.33333	0.92362
148.31667	0.92346
148.30000	0.92056
148.26667	0.91992
147.91667	0.92346
146.93333	0.35329
146.31667	0.02510
146.30000	0.02123
146.30000	0.02059
146.30000	0.01640
146.30000	0.01705
146.31667	0.02156
146.31667	0.02091
146.31667	0.02107
146.31667	0.02075
146.31667	0.02043
146.31667	0.02430
146.31667	0.01930
146.31667	0.02188
146.31667	0.01978
146.31667	0.06473
146.31667	0.21167
146.31667	0.71289
146.31667	0.79360
146.31667	0.85741
146.31667	0.85853
146.31667	0.85370
146.31667	0.84597
146.31667	0.81084
146.31667	0.78652
146.31667	0.71095
146.31667	0.69984
146.31667	0.69694
146.31667	0.70322
146.31667	0.70596
146.31667	0.71095
146.31667	0.71627
146.31667	0.71112
146.31667	0.71547
146.31667	0.71353
146.31667	0.72159
146.31667	0.71595
146.31667	0.71240
146.33333	0.71949
146.33333	0.71240
146.33333	0.71708
146.33333	0.71965
146.33333	0.71675
146.31667	0.70596
146.31667	0.69919
146.30000	0.69823
146.28333	0.70483
146.26667	0.70193
146.25000	0.70580
146.06667	0.74527
145.13333	0.82244
144.28333	0.41950
144.23333	0.21054
144.25000	0.21199
144.25000	0.20957
144.25000	0.19830
144.26667	0.19572
144.26667	0.20104
144.26667	0.20265
144.26667	0.22665
144.26667	0.23036
144.26667	0.38857
144.26667	0.67180
144.26667	0.68582
144.26667	0.76718
144.26667	0.77943
144.26667	0.77814
144.26667	0.70016
144.26667	0.61590
144.26667	0.64232
144.26667	0.67470
144.26667	0.67986
144.26667	0.67954
144.26667	0.69162
144.26667	0.68872
144.26667	0.68824
144.26667	0.68743
144.26667	0.68630
144.28333	0.69323
144.28333	0.68824
144.28333	0.69114
144.28333	0.68904
144.28333	0.68163
144.28333	0.68389
144.28333	0.68614
144.28333	0.68856
144.28333	0.67873
144.28333	0.68324
144.28333	0.67615
144.26667	0.67599
144.26667	0.67664
144.25000	0.68018
144.25000	0.68034
144.23333	0.68437
144.21667	0.68695
144.20000	0.68405
144.15000	0.70403
143.70000	0.76187
143.01667	0.74624
142.78333	0.68920
142.78333	0.69114
142.78333	0.68179
142.76667	0.68437
142.75000	0.67728
142.73333	0.66745
142.73333	0.67374
142.73333	0.66907
142.75000	0.66890
142.75000	0.65924
142.75000	0.66069
142.75000	0.66020
142.75000	0.66117
142.75000	0.65908
142.75000	0.66488
142.75000	0.67100
142.75000	0.66794
142.75000	0.68969
142.75000	0.70048
142.75000	0.70983
142.75000	0.70709
142.75000	0.71756
142.75000	0.73834
142.75000	0.74672
142.75000	0.73577
142.75000	0.69758
142.75000	0.39356
142.75000	0.35828
142.75000	0.37810
142.75000	0.39920
142.75000	0.47106
142.75000	0.49329
142.75000	0.51408
142.75000	0.51279
142.75000	0.51069
142.75000	0.51472
142.75000	0.54034
142.75000	0.54211
142.75000	0.53953
142.75000	0.53470
142.75000	0.53438
142.75000	0.53566
142.75000	0.53502
142.75000	0.52777
142.75000	0.52761
142.75000	0.53035
142.73333	0.53099
142.73333	0.52294
142.71667	0.52503
142.70000	0.52680
142.41667	0.59963
141.33333	0.69742
140.55000	0.55274
140.50000	0.45285
140.50000	0.43803
140.50000	0.43674
140.50000	0.40613
140.50000	0.39759
140.50000	0.39518
140.51667	0.38857
140.51667	0.40790
140.51667	0.46268
140.51667	0.54952
140.51667	0.64667
140.51667	0.64877
140.51667	0.68083
140.51667	0.67696
140.51667	0.68292
140.51667	0.65376
140.51667	0.64667
140.51667	0.63056
140.51667	0.60446
140.51667	0.60543
140.51667	0.59383
140.51667	0.62476
140.51667	0.65650
140.51667	0.65875
140.51667	0.66133
140.51667	0.66633
140.51667	0.67084
140.53333	0.67035
140.53333	0.66858
140.51667	0.66455
140.51667	0.67003
140.51667	0.66391
140.51667	0.64828
140.51667	0.65328
140.50000	0.64941
140.48333	0.65118
140.48333	0.64522
140.41667	0.64458
139.56667	0.64538
138.23333	0.01560
137.63333	0.00093
137.63333	0.00206
137.63333	0.00126
137.63333	0.00432
137.63333	0.00045
137.63333	0.00464
137.63333	0.00271
137.63333	0.00222
137.63333	0.00061
137.63333	0.00190
137.63333	0.00013
137.63333	0.00335
137.63333	-0.00019
137.63333	0.01012
137.63333	0.06345
137.63333	0.38937
137.63333	0.49619
137.63333	0.54565
137.63333	0.54098
137.63333	0.55693
137.63333	0.60494
137.63333	0.61525
137.63333	0.60333
137.63333	0.60526
137.63333	0.60543
137.63333	0.60365
137.63333	0.60462
137.63333	0.58996
137.63333	0.57610
137.63333	0.56821
137.63333	0.53180
137.63333	0.52858
137.63333	0.55935
137.63333	0.59060
137.63333	0.59399
137.63333	0.59399
137.63333	0.59592
137.63333	0.59721
137.63333	0.59495
137.65000	0.58770
137.65000	0.58432
137.65000	0.59221
137.65000	0.58722
137.63333	0.57771
137.63333	0.57336
137.61667	0.56724
137.61667	0.56998
137.60000	0.55999
137.55000	0.57175
136.85000	0.58287
135.50000	0.04298
134.73333	0.00319
134.71667	0.00448
134.71667	0.00174
134.71667	0.00206
134.73333	0.00045
134.73333	0.00029
134.73333	0.00448
134.73333	-0.00245
134.73333	0.00222
134.73333	0.00625
134.73333	0.00432
134.73333	0.00545
134.73333	0.02736
134.73333	0.30914
134.73333	0.52487
134.73333	0.53486
134.73333	0.54179
134.73333	0.54082
134.73333	0.54581
134.73333	0.54630
134.73333	0.54533
134.73333	0.51939
134.73333	0.49619
134.73333	0.47831
134.73333	0.43706
134.73333	0.45189
134.73333	0.46639
134.73333	0.50876
134.73333	0.51988
134.73333	0.51633
134.73333	0.52342
134.73333	0.51988
134.73333	0.51714
134.75000	0.52439
134.75000	0.51843
134.75000	0.51714
134.75000	0.52213
134.75000	0.51440
134.73333	0.51279
134.73333	0.51424
134.73333	0.51440
134.71667	0.51279
134.71667	0.50199
134.70000	0.50070
134.70000	0.51150
134.66667	0.50844
134.61667	0.51069
134.11667	0.53953
133.06667	0.34942
132.40000	0.01350
132.36667	0.01125
132.36667	0.01237
132.36667	0.01060
132.36667	0.01060
132.38333	0.00448
132.38333	0.01060
132.38333	0.00931
132.38333	0.01205
132.38333	0.01157
132.38333	0.24760
132.38333	0.42740
132.38333	0.49909
132.38333	0.50248
132.38333	0.50215
132.38333	0.50312
132.38333	0.50070
132.38333	0.49748
132.38333	0.47058
132.38333	0.45640
132.38333	0.44850
132.38333	0.45318
132.38333	0.45688
132.38333	0.48153
132.38333	0.50328
132.38333	0.49732
132.38333	0.49796
132.40000	0.49394
132.40000	0.50038
132.40000	0.49764
132.40000	0.49506
132.40000	0.50054
132.40000	0.50473
132.40000	0.49378
132.40000	0.49297
132.38333	0.48878
132.38333	0.49184
132.36667	0.49007
132.36667	0.48588
132.36667	0.49233
132.35000	0.49088
132.35000	0.48926
132.33333	0.48814
132.31667	0.48814
132.30000	0.48926
132.15000	0.49168
131.35000	0.46413
130.28333	0.01785
129.98333	0.00657
130.00000	0.00448
130.00000	0.00367
130.00000	0.00238
130.00000	0.00770
130.00000	0.01076
130.01667	0.00802
130.01667	0.00545
130.01667	0.00400
130.01667	0.00561
130.01667	0.01511
130.01667	0.02107
130.01667	0.02075
130.01667	0.02800
130.01667	0.02591
130.01667	0.03122
130.01667	0.11903
130.01667	0.46413
130.01667	0.43465
130.01667	0.36086
130.01667	0.37681
130.01667	0.38680
130.01667	0.38374
130.01667	0.40049
130.01667	0.39646
130.01667	0.39920
130.01667	0.41145
130.01667	0.41870
130.01667	0.40855
130.01667	0.41161
130.01667	0.40935
130.01667	0.41403
130.01667	0.42772
130.01667	0.43110
130.01667	0.43384
130.01667	0.43239
130.01667	0.43400
130.01667	0.43400
130.01667	0.43449
130.01667	0.43288
130.00000	0.43094
130.00000	0.41838
129.98333	0.41628
129.96667	0.41805
129.95000	0.41660
129.85000	0.42224
129.01667	0.44786
128.13333	0.22407
127.93333	0.05362
127.93333	0.04025
127.93333	0.04621
127.93333	0.04508
127.93333	0.04621
127.95000	0.04685
127.95000	0.04282
127.95000	0.04315
127.95000	0.04234
127.95000	0.04250
127.95000	0.05539
127.95000	0.34136
127.95000	0.43900
127.95000	0.43674
127.95000	0.43578
127.95000	0.43384
127.95000	0.43094
127.95000	0.41918
127.95000	0.40194
127.95000	0.39324
127.95000	0.39501
127.95000	0.40339
127.95000	0.43143
127.95000	0.43868
127.95000	0.43046
127.95000	0.44689
127.95000	0.43368
127.95000	0.43223
127.95000	0.42788
127.95000	0.42208
127.95000	0.41950
127.95000	0.42595
127.93333	0.42450
127.93333	0.42546
127.91667	0.42144
127.90000	0.42015
127.68333	0.42804
126.78333	0.36150
126.00000	0.01495
125.88333	0.01286
125.88333	0.01060
125.90000	0.01398
125.90000	0.01141
125.90000	0.01060
125.90000	0.01092
125.90000	0.01382
125.90000	0.01060
125.90000	0.00947
125.90000	0.00818
125.90000	0.01173
125.90000	0.01350
125.90000	0.01205
125.90000	0.05829
125.90000	0.40436
125.90000	0.39244
125.90000	0.33605
125.90000	0.33282
125.90000	0.32815
125.90000	0.33782
125.91667	0.33927
125.91667	0.34700
125.91667	0.34555
125.91667	0.35490
125.91667	0.36440
125.91667	0.36714
125.91667	0.36505
125.91667	0.36601
125.91667	0.36472
125.91667	0.35345
125.91667	0.37278
125.91667	0.37359
125.91667	0.37342
125.91667	0.37600
125.91667	0.37101
125.91667	0.37665
125.91667	0.38132
125.91667	0.38100
125.91667	0.36521
125.90000	0.36843
125.90000	0.36924
125.88333	0.36424
125.86667	0.36472
125.83333	0.36875
125.33333	0.40919
124.13333	0.25436
123.41667	0.01253
123.38333	0.01672
123.40000	0.01350
123.40000	0.01737
123.40000	0.01173
123.40000	0.01350
123.40000	0.01302
123.40000	0.01753
123.40000	0.01866
123.40000	0.01769
123.40000	0.03590
123.40000	0.04025
123.40000	0.04750
123.40000	0.06280
123.40000	0.17848
123.40000	0.31591
123.40000	0.37971
123.40000	0.39211
123.40000	0.39002
123.40000	0.38422
123.40000	0.38599
123.40000	0.37069
123.40000	0.36601
123.40000	0.36698
123.40000	0.36215
123.40000	0.38551
123.40000	0.38615
123.40000	0.37504
123.40000	0.38164
123.40000	0.37858
123.40000	0.37777
123.40000	0.37906
123.40000	0.37230
123.40000	0.36811
123.40000	0.37423
123.40000	0.37375
123.38333	0.37197
123.36667	0.37810
123.35000	0.37697
123.21667	0.37584
122.20000	0.31832
120.95000	0.00931
120.56667	0.01286
120.58333	0.00545
120.58333	0.00754
120.58333	0.01447
120.58333	0.01141
120.58333	0.00706
120.58333	0.00996
120.58333	0.01076
120.58333	0.01270
120.58333	0.00996
120.60000	0.01753
120.60000	0.05491
120.60000	0.33637
120.60000	0.35860
120.60000	0.35731
120.60000	0.35909
120.60000	0.35586
120.60000	0.35457
120.60000	0.35699
120.60000	0.35554
120.60000	0.35329
120.60000	0.35361
120.60000	0.33508
120.60000	0.26274
120.60000	0.25066
120.60000	0.25066
120.60000	0.26629
120.60000	0.27144
120.60000	0.27821
120.60000	0.28320
120.60000	0.29190
120.60000	0.28771
120.60000	0.28868
120.60000	0.29158
120.60000	0.28836
120.60000	0.29915
120.60000	0.29786
120.60000	0.30012
120.60000	0.29883
120.60000	0.29545
120.60000	0.29835
120.60000	0.29480
120.60000	0.28755
120.58333	0.28659
120.58333	0.28159
120.56667	0.28191
120.55000	0.28481
120.53333	0.28449
120.48333	0.29142
119.91667	0.33830
119.13333	0.32396
118.95000	0.30817
118.95000	0.30431
118.95000	0.30237
118.95000	0.30318
118.96667	0.30076
118.96667	0.30157
118.96667	0.29722
118.96667	0.31252
118.96667	0.33186
118.96667	0.33186
118.96667	0.33411
118.96667	0.33218
118.96667	0.33476
118.96667	0.33653
118.96667	0.33734
118.96667	0.33395
118.96667	0.33186
118.96667	0.31526
118.96667	0.28465
118.96667	0.28240
118.96667	0.27080
118.96667	0.27305
118.96667	0.28787
118.96667	0.30109
118.96667	0.29496
118.96667	0.29899
118.96667	0.29609
118.96667	0.29593
118.96667	0.28997
118.96667	0.29239
118.96667	0.29110
118.96667	0.28707
118.95000	0.28675
118.95000	0.27982
118.91667	0.28514
118.21667	0.32574
116.75000	0.05120
115.70000	0.00158
115.63333	0.00432
115.63333	0.00013
115.63333	0.00383
115.65000	0.00271
115.65000	0.00077
115.65000	0.00287
115.65000	0.00947
115.65000	0.06361
115.65000	0.25034
115.65000	0.24276
115.65000	0.24373
115.65000	0.24824
115.65000	0.26564
115.65000	0.28949
115.65000	0.30012
115.65000	0.30769
115.65000	0.30769
115.65000	0.30946
115.65000	0.30866
115.65000	0.31011
115.65000	0.30930
115.65000	0.31333
115.65000	0.30495
115.65000	0.30560
115.65000	0.31156
115.65000	0.31236
115.65000	0.31059
115.65000	0.30640
115.65000	0.30850
115.65000	0.31011
115.65000	0.30850
115.65000	0.30447
115.65000	0.29802
115.65000	0.29915
115.65000	0.30527
115.65000	0.29964
115.65000	0.30431
115.65000	0.30527
115.65000	0.30447
115.65000	0.30721
115.63333	0.30382
115.63333	0.30737
115.63333	0.30721
115.63333	0.30447
115.63333	0.30399
115.63333	0.30302
115.61667	0.30527
115.61667	0.30656
115.61667	0.30640
115.60000	0.30141
115.60000	0.30705
115.60000	0.29851
115.58333	0.30302
115.58333	0.30076
115.56667	0.30125
115.55000	0.30737
115.48333	0.30189
114.96667	0.30141
114.20000	0.09744
114.01667	0.02091
114.01667	0.01914
114.01667	0.01962
114.01667	0.02059
114.01667	0.01978
114.01667	0.01978
114.01667	0.02333
114.01667	0.02220
114.01667	0.02865
114.01667	0.03976
114.01667	0.05265
114.01667	0.09825
114.01667	0.18621
114.01667	0.22649
114.01667	0.28352
114.01667	0.29722
114.01667	0.28820
114.01667	0.28336
114.01667	0.27192
114.01667	0.27192
114.01667	0.27370
114.01667	0.27595
114.01667	0.27080
114.01667	0.27756
114.01667	0.27821
114.03333	0.29077
114.03333	0.29255
114.03333	0.29142
114.03333	0.28949
114.03333	0.29770
114.03333	0.29883
114.03333	0.29802
114.03333	0.28916
114.03333	0.28965
114.05000	0.28836
114.05000	0.28900
114.03333	0.27772
114.03333	0.28224
114.03333	0.28079
114.03333	0.28095
114.03333	0.27821
114.01667	0.28336
114.01667	0.28079
114.00000	0.28352
114.00000	0.27934
113.98333	0.28385
113.95000	0.27901
113.58333	0.28385
112.55000	0.19346
111.95000	0.00722
111.93333	0.00738
111.93333	0.00255
111.93333	0.00915
111.93333	0.00931
111.93333	0.00947
111.93333	0.00367
111.93333	0.00996
111.93333	0.00754
111.93333	0.01125
111.93333	0.00931
111.93333	0.00770
111.93333	0.00963
111.93333	0.00593
111.93333	0.00818
111.93333	0.00625
111.93333	0.00980
111.93333	0.00319
111.93333	0.03525
111.93333	0.06055
111.93333	0.14255
111.93333	0.21521
111.93333	0.24454
111.93333	0.27756
111.93333	0.27563
111.93333	0.28320
111.93333	0.28175
111.93333	0.27289
111.93333	0.25710
111.93333	0.22424
111.93333	0.20104
111.93333	0.19765
111.93333	0.17864
111.93333	0.18122
111.93333	0.18541
111.93333	0.19217
111.93333	0.21731
111.93333	0.21811
111.93333	0.21844
111.93333	0.21360
111.93333	0.21570
111.95000	0.21779
111.95000	0.21521
111.95000	0.20829
111.95000	0.21247
111.95000	0.21312
111.95000	0.21489
111.95000	0.21360
111.95000	0.21441
111.95000	0.21215
111.95000	0.21956
111.93333	0.21699
111.93333	0.21554
111.93333	0.22085
111.93333	0.21956
111.93333	0.21715
111.91667	0.21908
111.91667	0.20990
111.90000	0.22182
111.88333	0.22375
111.85000	0.22311
111.45000	0.25614
110.36667	0.27450
109.65000	0.08358
109.61667	0.05040
109.61667	0.05346
109.63333	0.05313
109.63333	0.04782
109.63333	0.04782
109.63333	0.04476
109.63333	0.05201
109.63333	0.04605
109.63333	0.04218
109.65000	0.04234
109.65000	0.04556
109.65000	0.05652
109.65000	0.06264
109.65000	0.07376
109.65000	0.12370
109.65000	0.14158
109.65000	0.14964
109.63333	0.19926
109.63333	0.20152
109.63333	0.25420
109.63333	0.26693
109.63333	0.26419
109.63333	0.26500
109.63333	0.26709
109.63333	0.26355
109.63333	0.26032
109.63333	0.25646
109.63333	0.25388
109.65000	0.26355
109.65000	0.26580
109.65000	0.26387
109.65000	0.26403
109.65000	0.26177
109.65000	0.25775
109.66667	0.25952
109.66667	0.25565
109.66667	0.25807
109.66667	0.25952
109.65000	0.26016
109.65000	0.25904
109.65000	0.25920
109.65000	0.25920
109.63333	0.26081
109.61667	0.26274
109.60000	0.26000
109.56667	0.25871
109.10000	0.26435
107.95000	0.05233
107.20000	0.00770
107.13333	0.00915
107.13333	0.00867
107.13333	0.00947
107.13333	0.00142
107.15000	0.00706
107.15000	0.00609
107.15000	0.00480
107.15000	0.00867
107.15000	0.00770
107.15000	0.00545
107.15000	0.00899
107.15000	0.00351
107.15000	0.00996
107.15000	0.01270
107.15000	0.19524
107.15000	0.24808
107.15000	0.24760
107.15000	0.24905
107.15000	0.25211
107.15000	0.25275
107.15000	0.24711
107.15000	0.24647
107.15000	0.24180
107.15000	0.24937
107.15000	0.24695
107.15000	0.25050
107.15000	0.25388
107.15000	0.25227
107.15000	0.25146
107.15000	0.24679
107.15000	0.24550
107.15000	0.24744
107.15000	0.24373
107.15000	0.24760
107.15000	0.24341
107.15000	0.24744
107.15000	0.24196
107.13333	0.24663
107.13333	0.24647
107.11667	0.23954
107.10000	0.24566
107.08333	0.24260
106.83333	0.24889
105.96667	0.20925
105.35000	0.02784
105.33333	0.01624
105.33333	0.01431
105.33333	0.01431
105.33333	0.01801
105.33333	0.01914
105.33333	0.01914
105.35000	0.01270
105.35000	0.01253
105.35000	0.01543
105.35000	0.04347
105.35000	0.21215
105.35000	0.23777
105.35000	0.24019
105.35000	0.23471
105.35000	0.22440
105.35000	0.22053
105.35000	0.22198
105.35000	0.22182
105.35000	0.22134
105.35000	0.20329
105.35000	0.20957
105.35000	0.21360
105.35000	0.22295
105.35000	0.22117
105.35000	0.22214
105.35000	0.22021
105.35000	0.21795
105.35000	0.22456
105.36667	0.22311
105.36667	0.21280
105.36667	0.22214
105.36667	0.22134
105.35000	0.21666
105.35000	0.21924
105.33333	0.21312
105.33333	0.21876
105.31667	0.21409
105.31667	0.21731
105.28333	0.21731
105.16667	0.22359
104.40000	0.23986
103.56667	0.12853
103.35000	0.02993
103.35000	0.03058
103.35000	0.03316
103.35000	0.03477
103.35000	0.02897
103.35000	0.02720
103.35000	0.02365
103.35000	0.03445
103.35000	0.07553
103.35000	0.18637
103.35000	0.22665
103.35000	0.22456
103.35000	0.22375
103.35000	0.21924
103.35000	0.22214
103.35000	0.21457
103.35000	0.21956
103.35000	0.22214
103.35000	0.21940
103.35000	0.22617
103.35000	0.22085
103.35000	0.22069
103.35000	0.22117
103.35000	0.22166
103.35000	0.22198
103.35000	0.21682
103.35000	0.21827
103.35000	0.22037
103.35000	0.21956
103.35000	0.22085
103.33333	0.22279
103.33333	0.21715
103.30000	0.22375
103.13333	0.22520
102.35000	0.21312
101.45000	0.01366
101.20000	0.00963
101.20000	0.00754
101.20000	0.00110
101.21667	0.00400
101.21667	0.00706
101.21667	0.00335
101.21667	0.00174
101.21667	0.00174
101.21667	0.00432
101.21667	0.05233
101.21667	0.18702
101.21667	0.21006
101.21667	0.21102
101.21667	0.21473
101.21667	0.21360
101.21667	0.20845
101.21667	0.20732
101.21667	0.20474
101.21667	0.20635
101.21667	0.22117
101.21667	0.21972
101.21667	0.21135
101.21667	0.21457
101.21667	0.21521
101.21667	0.25291
101.23333	0.25291
101.23333	0.25243
101.23333	0.24067
101.23333	0.25372
101.23333	0.21489
101.23333	0.21167
101.23333	0.20941
101.23333	0.21425
101.23333	0.21119
101.23333	0.20957
101.23333	0.20796
101.21667	0.21425
101.21667	0.21086
101.21667	0.21312
101.20000	0.21634
101.20000	0.21457
101.18333	0.21747
101.18333	0.21425
101.16667	0.22182
101.15000	0.21586
101.00000	0.21586
100.30000	0.21086
99.58333	0.03976
99.45000	0.01785
99.45000	0.01447
99.46667	0.01946
99.46667	0.01495
99.46667	0.01431
99.46667	0.01189
99.46667	0.01511
99.46667	0.01237
99.46667	0.01189
99.46667	0.01302
99.46667	0.01640
99.46667	0.01463
99.46667	0.02655
99.46667	0.07343
99.46667	0.15850
99.46667	0.20265
99.46667	0.20893
99.46667	0.17622
99.46667	0.15012
99.46667	0.14980
99.46667	0.15770
99.46667	0.15963
99.46667	0.15786
99.46667	0.16334
99.46667	0.17107
99.46667	0.17268
99.48333	0.17171
99.48333	0.17429
99.48333	0.17010
99.48333	0.17381
99.48333	0.16704
99.48333	0.16978
99.48333	0.17204
99.48333	0.16656
99.48333	0.17316
99.48333	0.16350
99.48333	0.16769
99.46667	0.16640
99.46667	0.16914
99.46667	0.16881
99.46667	0.17381
99.46667	0.17187
99.45000	0.17107
99.45000	0.17155
99.43333	0.17671
99.43333	0.17042
99.43333	0.17461
99.41667	0.16994
99.40000	0.17107
99.40000	0.17751
99.35000	0.17397
98.98333	0.19749
98.21667	0.20055
97.83333	0.17735
97.83333	0.17800
97.83333	0.17010
97.83333	0.17026
97.85000	0.17026
97.85000	0.17107
97.85000	0.17026
97.85000	0.17526
97.85000	0.17381
97.85000	0.18799
97.85000	0.19395
97.85000	0.19604
97.85000	0.20104
97.85000	0.19524
97.85000	0.19765
97.85000	0.18863
97.85000	0.19234
97.85000	0.19040
97.85000	0.18944
97.85000	0.19137
97.85000	0.19814
97.85000	0.18927
97.86667	0.19266
97.86667	0.19959
97.86667	0.19346
97.86667	0.19298
97.86667	0.19072
97.86667	0.19153
97.86667	0.19072
97.86667	0.19105
97.86667	0.19475
97.86667	0.19443
97.86667	0.19072
97.86667	0.19250
97.86667	0.19459
97.86667	0.19153
97.86667	0.18992
97.86667	0.19733
97.86667	0.19765
97.86667	0.19362
97.86667	0.20023
97.86667	0.19910
97.86667	0.19685
97.85000	0.19781
97.85000	0.19717
97.83333	0.20394
97.80000	0.19379
97.38333	0.20603
96.71667	0.15222
96.18333	0.00738
96.11667	0.00126
96.11667	0.00335
96.11667	0.00255
96.11667	0.00061
96.13333	0.00545
96.13333	0.00528
96.13333	0.00899
96.13333	0.08874
96.13333	0.18654
96.13333	0.18782
96.13333	0.18944
96.13333	0.19314
96.13333	0.19330
96.13333	0.18766
96.13333	0.17365
96.13333	0.13530
96.13333	0.12853
96.13333	0.12435
96.13333	0.12370
96.13333	0.14271
96.13333	0.14706
96.13333	0.15254
96.13333	0.15222
96.13333	0.15496
96.15000	0.15077
96.15000	0.15061
96.15000	0.14223
96.15000	0.14513
96.15000	0.13949
96.15000	0.14722
96.15000	0.14577
96.15000	0.14577
96.15000	0.14610
96.13333	0.14336
96.13333	0.14610
96.13333	0.14287
96.13333	0.14094
96.13333	0.14142
96.11667	0.13965
96.11667	0.14722
96.11667	0.14787
96.11667	0.14303
96.10000	0.14674
96.10000	0.14706
96.10000	0.14755
96.08333	0.14400
96.08333	0.14738
96.08333	0.14046
96.06667	0.14900
96.05000	0.14835
96.00000	0.15367
95.53333	0.17945
94.71667	0.18637
94.41667	0.16640
94.38333	0.16301
94.25000	0.15109
93.83333	0.03896
93.28333	-0.00213
92.88333	0.00222
92.81667	0.00222
92.81667	-0.00052
92.81667	0.00110
92.81667	-0.00390
92.81667	0.00287
92.83333	0.00222
92.83333	0.02929
92.83333	0.06892
92.83333	0.07940
92.83333	0.10936
92.83333	0.13111
92.83333	0.15222
92.83333	0.17655
92.83333	0.18009
92.83333	0.17993
92.83333	0.17800
92.83333	0.18090
92.83333	0.17606
92.83333	0.17864
92.83333	0.17880
92.83333	0.17993
92.83333	0.17880
92.83333	0.17429
92.83333	0.17655
92.83333	0.17477
92.83333	0.17284
92.83333	0.17977
92.83333	0.17784
92.83333	0.17655
92.83333	0.17075
92.83333	0.17349
92.83333	0.17880
92.83333	0.17510
92.83333	0.17332
92.83333	0.18057
92.83333	0.17542
92.83333	0.17784
92.83333	0.17655
92.83333	0.17816
92.83333	0.17510
92.83333	0.18106
92.83333	0.18170
92.81667	0.18186
92.80000	0.18186
92.78333	0.17751
92.21667	0.18170
90.76667	0.00222
89.90000	0.00093
89.90000	0.00029
89.91667	0.00174
89.91667	0.00029
89.91667	-0.00068
89.91667	0.00029
89.91667	0.00174
89.91667	0.00126
89.91667	0.00029
89.91667	0.00045
89.91667	0.00464
89.91667	0.04798
89.91667	0.16801
89.91667	0.17010
89.91667	0.16930
89.91667	0.16801
89.91667	0.16897
89.91667	0.17155
89.91667	0.16833
89.91667	0.17316
89.93333	0.16672
89.93333	0.17010
89.93333	0.16881
89.93333	0.16769
89.93333	0.16785
89.93333	0.16930
89.93333	0.16640
89.93333	0.16462
89.93333	0.16720
89.93333	0.16656
89.93333	0.16672
89.93333	0.16285
89.93333	0.17026
89.93333	0.16156
89.93333	0.16930
89.91667	0.16785
89.91667	0.16624
89.88333	0.16865
89.83333	0.16495
89.16667	0.15834
88.05000	0.00190
87.61667	-0.00019
87.61667	0.00255
87.61667	0.00126
87.63333	-0.00084
87.63333	-0.00309
87.63333	0.00222
87.63333	-0.00100
87.63333	-0.00084
87.63333	-0.00052
87.63333	-0.00035
87.63333	0.00158
87.63333	0.02575
87.63333	0.13192
87.63333	0.16704
87.63333	0.16462
87.63333	0.16559
87.63333	0.16430
87.63333	0.16720
87.63333	0.16253
87.63333	0.16559
87.63333	0.16221
87.63333	0.16334
87.65000	0.16511
87.65000	0.16607
87.65000	0.16350
87.65000	0.16301
87.65000	0.16044
87.65000	0.16559
87.65000	0.16156
87.65000	0.16334
87.65000	0.16027
87.63333	0.16285
87.63333	0.15866
87.61667	0.16027
87.61667	0.16156
87.60000	0.16446
87.60000	0.16140
87.58333	0.15786
87.55000	0.15963
87.26667	0.15254
86.50000	0.10243
85.75000	-0.00052
85.56667	-0.00132
85.56667	0.00013
85.58333	0.00029
85.58333	-0.00164
85.58333	0.00126
85.58333	-0.00019
85.58333	0.00110
85.58333	-0.00052
85.58333	0.00061
85.58333	0.00045
85.58333	0.00255
85.58333	0.11371
85.58333	0.15399
85.58333	0.15995
85.58333	0.15866
85.58333	0.15673
85.58333	0.16092
85.60000	0.15576
85.60000	0.15560
85.60000	0.15834
85.60000	0.15464
85.60000	0.15641
85.60000	0.15850
85.60000	0.15157
85.60000	0.15077
85.60000	0.14900
85.60000	0.14755
85.60000	0.14819
85.60000	0.15625
85.60000	0.14738
85.60000	0.15012
85.61667	0.15029
85.61667	0.14593
85.61667	0.14158
85.61667	0.14996
85.61667	0.14851
85.61667	0.14481
85.61667	0.14819
85.60000	0.14771
85.60000	0.15029
85.60000	0.14432
85.58333	0.14529
85.58333	0.14738
85.56667	0.14755
85.55000	0.15141
85.51667	0.14352
85.35000	0.15512
84.60000	0.14996
83.88333	0.02639
83.73333	-0.00084
83.73333	0.00045
83.73333	0.00464
83.73333	0.00077
83.73333	0.00013
83.73333	0.00255
83.73333	0.00480
83.73333	0.00110
83.73333	-0.00035
83.73333	0.00545
83.73333	0.01076
83.73333	0.06055
83.73333	0.14223
83.73333	0.15351
83.73333	0.15174
83.73333	0.14948
83.73333	0.15093
83.73333	0.14932
83.73333	0.15045
83.73333	0.15351
83.73333	0.15238
83.73333	0.15141
83.75000	0.14819
83.75000	0.14803
83.75000	0.14867
83.75000	0.15077
83.75000	0.14577
83.75000	0.14916
83.75000	0.14722
83.75000	0.14755
83.73333	0.14690
83.73333	0.14819
83.73333	0.14320
83.71667	0.14626
83.70000	0.14706
83.66667	0.14980
83.06667	0.14497
81.96667	-0.00003
81.08333	0.00061
80.88333	-0.00052
80.88333	0.00093
80.88333	0.00110
80.88333	0.00158
80.88333	-0.00132
80.88333	0.00174
80.88333	-0.00019
80.88333	-0.00116
80.88333	-0.00035
80.88333	0.04347
80.88333	0.13208
80.88333	0.14030
80.88333	0.14593
80.88333	0.14400
80.88333	0.14642
80.88333	0.14771
80.88333	0.14368
80.88333	0.14384
80.90000	0.14674
80.90000	0.14738
80.90000	0.14513
80.90000	0.14271
80.90000	0.14416
80.90000	0.14529
80.90000	0.13917
80.90000	0.13981
80.90000	0.14416
80.90000	0.14158
80.90000	0.14158
80.90000	0.14368
80.90000	0.13756
80.90000	0.13820
80.88333	0.13885
80.85000	0.13804
80.61667	0.14191
79.68333	0.07698
78.75000	0.00126
78.50000	0.00142
78.50000	-0.00100
78.50000	0.00045
78.51667	-0.00100
78.51667	-0.00180
78.51667	0.00222
78.51667	-0.00132
78.51667	0.00158
78.51667	0.00061
78.51667	0.00029
78.51667	-0.00148
78.51667	0.08004
78.51667	0.13707
78.51667	0.13820
78.51667	0.13836
78.51667	0.13740
78.51667	0.14239
78.51667	0.14448
78.51667	0.14175
78.51667	0.13707
78.51667	0.13965
78.51667	0.12773
78.51667	0.11806
78.51667	0.12451
78.51667	0.12161
78.51667	0.12596
78.51667	0.13015
78.51667	0.13272
78.51667	0.13047
78.51667	0.13224
78.51667	0.13143
78.51667	0.13063
78.51667	0.13192
78.53333	0.13031
78.51667	0.12628
78.51667	0.12499
78.51667	0.12692
78.51667	0.13111
78.51667	0.12580
78.50000	0.12725
78.50000	0.12692
78.48333	0.12741
78.45000	0.12596
78.15000	0.13707
77.26667	0.12918
76.45000	-0.00019
76.36667	0.00174
76.36667	0.00255
76.38333	-0.00164
76.38333	0.00110
76.38333	0.00190
76.38333	0.00400
76.38333	0.02107
76.38333	0.13578
76.38333	0.13868
76.38333	0.13627
76.38333	0.13965
76.38333	0.13595
76.38333	0.13820
76.38333	0.13901
76.38333	0.13466
76.38333	0.13417
76.38333	0.13192
76.38333	0.13611
76.38333	0.13627
76.38333	0.13578
76.38333	0.13675
76.38333	0.13111
76.38333	0.13804
76.38333	0.13659
76.38333	0.13981
76.38333	0.13740
76.36667	0.13466
76.36667	0.13578
76.35000	0.13611
76.33333	0.13740
76.18333	0.13095
75.80000	0.13707
75.61667	0.13272
75.58333	0.13272
75.45000	0.12547
75.16667	0.09776
74.83333	0.01576
74.68333	0.00351
74.68333	-0.00116
74.68333	-0.00116
74.68333	-0.00342
74.68333	0.00271
74.68333	0.00271
74.68333	0.01592
74.68333	0.08230
74.68333	0.12821
74.68333	0.13192
74.68333	0.13111
74.68333	0.13256
74.68333	0.12918
74.68333	0.11291
74.68333	0.08552
74.68333	0.07682
74.68333	0.07263
74.68333	0.09196
74.68333	0.09051
74.68333	0.08810
74.68333	0.09390
74.68333	0.09454
74.70000	0.09631
74.70000	0.09100
74.70000	0.09792
74.70000	0.09567
74.70000	0.08858
74.70000	0.09277
74.70000	0.09502
74.70000	0.09196
74.68333	0.09277
74.68333	0.09373
74.68333	0.08632
74.66667	0.08761
74.65000	0.08938
74.56667	0.09857
74.00000	0.12273
73.20000	0.13224
72.70000	0.09680
72.65000	0.07940
72.65000	0.08246
72.66667	0.08552
72.66667	0.08246
72.66667	0.08133
72.66667	0.08149
72.66667	0.08906
72.66667	0.08955
72.66667	0.09212
72.66667	0.09663
72.66667	0.11693
72.66667	0.11677
72.66667	0.12402
72.66667	0.13353
72.66667	0.13063
72.66667	0.12950
72.66667	0.11806
72.66667	0.12225
72.66667	0.12370
72.66667	0.12418
72.66667	0.12692
72.66667	0.13160
72.66667	0.12612
72.66667	0.12032
72.66667	0.12708
72.66667	0.12837
72.66667	0.11983
72.66667	0.12515
72.66667	0.12225
72.66667	0.12306
72.65000	0.12580
72.60000	0.11935
72.31667	0.12531
71.70000	0.12032
71.06667	0.02542
70.76667	0.00206
70.71667	0.00110
70.68333	0.00045
70.66667	-0.00245
70.65000	0.00061
70.65000	0.00077
70.65000	0.00126
70.66667	0.00110
70.66667	-0.00068
70.66667	-0.00084
70.66667	0.00045
70.66667	-0.00309
70.66667	-0.00197
70.66667	0.11693
70.66667	0.12467
70.66667	0.12531
70.66667	0.12950
70.66667	0.12290
70.66667	0.09953
70.66667	0.10243
70.66667	0.10115
70.66667	0.11258
70.66667	0.11001
70.68333	0.11226
70.68333	0.11387
70.68333	0.10968
70.70000	0.11081
70.70000	0.10743
70.70000	0.11275
70.70000	0.11194
70.70000	0.10453
70.68333	0.10856
70.66667	0.10743
70.66667	0.10469
70.66667	0.10469
70.65000	0.10695
70.63333	0.10582
70.56667	0.10292
69.88333	0.12096
68.86667	0.06232
68.20000	-0.00164
68.08333	-0.00019
68.08333	0.00142
68.08333	-0.00277
68.08333	-0.00309
68.08333	0.00142
68.08333	-0.00084
68.08333	0.00206
68.08333	0.01962
68.08333	0.06812
68.08333	0.11097
68.08333	0.12112
68.08333	0.11516
68.08333	0.11919
68.08333	0.12402
68.08333	0.12354
68.08333	0.12547
68.08333	0.12596
68.08333	0.12515
68.08333	0.11758
68.08333	0.12112
68.08333	0.11871
68.08333	0.11951
68.08333	0.11887
68.08333	0.10791
68.08333	0.10678
68.08333	0.12032
68.08333	0.12080
68.08333	0.11226
68.10000	0.11548
68.10000	0.11516
68.10000	0.11645
68.10000	0.11226
68.08333	0.11194
68.08333	0.11258
68.08333	0.10985
68.08333	0.11258
68.06667	0.11291
68.06667	0.11516
68.06667	0.11468
68.05000	0.11033
67.96667	0.11983
67.35000	0.12580
66.43333	0.04717
65.91667	0.00142
65.81667	0.00158
65.81667	-0.00019
65.81667	-0.00019
65.81667	-0.00035
65.81667	0.00142
65.81667	-0.00229
65.83333	0.00319
65.83333	0.00013
65.83333	0.00158
65.83333	-0.00052
65.83333	0.00335
65.83333	0.00271
65.83333	0.01415
65.83333	0.07633
65.83333	0.11420
65.83333	0.11774
65.83333	0.11178
65.83333	0.10872
65.83333	0.11548
65.83333	0.11162
65.83333	0.11452
65.83333	0.11436
65.83333	0.10662
65.83333	0.11242
65.83333	0.11532
65.83333	0.11710
65.83333	0.11291
65.83333	0.11548
65.83333	0.11500
65.81667	0.11194
65.81667	0.10840
65.80000	0.10968
65.78333	0.10614
65.43333	0.11806
64.55000	0.10115
63.75000	-0.00100
63.45000	-0.00019
63.40000	-0.00035
63.40000	0.00238
63.40000	0.00174
63.40000	0.00013
63.40000	-0.00084
63.40000	-0.00197
63.40000	-0.00052
63.40000	0.00222
63.40000	0.00303
63.40000	0.00496
63.40000	0.06409
63.40000	0.10952
63.40000	0.11452
63.40000	0.11371
63.40000	0.11758
63.40000	0.11452
63.40000	0.11645
63.40000	0.11806
63.40000	0.11565
63.40000	0.11629
63.40000	0.11339
63.40000	0.11178
63.40000	0.11420
63.40000	0.11629
63.40000	0.11581
63.40000	0.11113
63.40000	0.11548
63.40000	0.11420
63.40000	0.11194
63.40000	0.10775
63.40000	0.11468
63.40000	0.11403
63.38333	0.11162
63.38333	0.10791
63.38333	0.11484
63.36667	0.11903
63.35000	0.11710
63.20000	0.10952
62.63333	0.11436
62.00000	0.05281
61.58333	0.00077
61.33333	0.00093
61.30000	0.00110
61.30000	-0.00068
61.30000	-0.00035
61.30000	-0.00068
61.30000	0.00013
61.30000	0.00045
61.30000	-0.00213
61.30000	0.00126
61.30000	0.00158
61.30000	0.00126
61.30000	0.01302
61.30000	0.09245
61.30000	0.10920
61.30000	0.11516
61.30000	0.11661
61.30000	0.11436
61.30000	0.11516
61.30000	0.11452
61.30000	0.11532
61.30000	0.11693
61.30000	0.11967
61.30000	0.11645
61.30000	0.11693
61.30000	0.11548
61.30000	0.11613
61.30000	0.11855
61.30000	0.11500
61.30000	0.11565
61.30000	0.11452
61.30000	0.11855
61.30000	0.11307
61.28333	0.11033
61.28333	0.11371
61.28333	0.11838
61.26667	0.11613
61.25000	0.11468
61.15000	0.12032
60.63333	0.11210
59.86667	0.01801
59.36667	0.00174
59.23333	-0.00068
59.23333	-0.00100
59.23333	0.00190
59.23333	0.00142
59.23333	-0.00164
59.23333	-0.00261
59.23333	0.00142
59.23333	0.00174
59.23333	0.00255
59.23333	0.00110
59.23333	0.00222
59.23333	0.00077
59.23333	0.05765
59.23333	0.11726
59.23333	0.11983
59.23333	0.11468
59.23333	0.11806
59.23333	0.11146
59.23333	0.11581
59.23333	0.10936
59.23333	0.11661
59.23333	0.11871
59.23333	0.11532
59.23333	0.11645
59.23333	0.11484
59.23333	0.11581
59.23333	0.11693
59.21667	0.11661
59.20000	0.11291
59.11667	0.11613
58.41667	0.09970
57.38333	0.00110
56.86667	0.00222
56.70000	-0.00003
56.65000	-0.00229
56.63333	0.00077
56.63333	-0.00229
56.63333	-0.00342
56.63333	-0.00164
56.63333	0.00126
56.63333	-0.00100
56.63333	0.00158
56.63333	-0.00164
56.63333	-0.00100
56.63333	-0.00068
56.63333	-0.00084
56.63333	0.05797
56.63333	0.10646
56.63333	0.10695
56.63333	0.11097
56.63333	0.10872
56.63333	0.10936
56.63333	0.11033
56.63333	0.11532
56.63333	0.10823
56.63333	0.10985
56.63333	0.11146
56.63333	0.11484
56.63333	0.11387
56.63333	0.10711
56.63333	0.11033
56.65000	0.11001
56.65000	0.11645
56.65000	0.11565
56.63333	0.11194
56.63333	0.11258
56.63333	0.11162
56.63333	0.11178
56.60000	0.11049
56.33333	0.11162
55.51667	0.09583
54.88333	0.00158
54.75000	0.00142
54.73333	-0.00003
54.73333	-0.00003
54.73333	0.00206
54.73333	0.00287
54.73333	-0.00164
54.73333	0.00690
54.73333	0.09100
54.73333	0.10405
54.73333	0.11017
54.73333	0.11484
54.73333	0.11146
54.73333	0.10872
54.73333	0.11033
54.73333	0.10340
54.73333	0.10260
54.73333	0.10034
54.73333	0.09889
54.73333	0.10179
54.73333	0.10566
54.73333	0.10276
54.73333	0.10356
54.73333	0.10807
54.73333	0.10227
54.73333	0.10743
54.71667	0.10002
54.71667	0.10614
54.68333	0.10356
54.55000	0.10823
53.96667	0.10437
53.31667	0.07360
53.00000	0.00738
52.91667	0.00786
52.91667	0.00416
52.91667	0.00222
52.91667	0.00367
52.91667	0.00287
52.91667	0.04862
52.91667	0.06538
52.91667	0.09051
52.91667	0.10292
52.91667	0.10163
52.91667	0.10485
52.91667	0.10517
52.91667	0.10791
52.91667	0.10872
52.91667	0.10888
52.91667	0.10469
52.91667	0.10292
52.90000	0.10823
52.90000	0.10856
52.90000	0.11162
52.90000	0.10550
52.90000	0.10324
52.90000	0.10260
52.90000	0.09873
52.90000	0.09986
52.90000	0.10807
52.90000	0.10646
52.90000	0.10695
52.88333	0.10517
52.86667	0.10195
52.68333	0.10437
52.06667	0.10227
51.43333	0.06216
51.16667	-0.00003
51.08333	0.00303
51.01667	0.00126
50.93333	0.00158
50.88333	-0.00084
50.86667	-0.00100
50.86667	-0.00003
50.86667	0.02961
50.85000	0.10066
50.85000	0.10840
50.85000	0.10646
50.85000	0.10952
50.85000	0.10453
50.85000	0.10437
50.85000	0.10485
50.85000	0.10002
50.85000	0.10034
50.85000	0.10066
50.85000	0.10066
50.85000	0.10324
50.86667	0.10034
50.86667	0.10646
50.86667	0.10791
50.86667	0.10985
50.86667	0.10211
50.85000	0.10533
50.85000	0.10485
50.85000	0.10582
50.85000	0.10598
50.85000	0.10775
50.85000	0.10469
50.83333	0.09825
50.81667	0.10131
50.65000	0.10501
50.10000	0.10469
49.53333	0.05410
49.33333	0.00786
49.30000	0.00335
49.28333	0.00158
49.26667	-0.00164
49.26667	-0.00148
49.26667	0.00400
49.26667	0.00077
49.26667	0.03960
49.26667	0.05797
49.26667	0.05732
49.26667	0.07070
49.26667	0.07231
49.26667	0.08423
49.26667	0.10002
49.26667	0.09970
49.26667	0.10243
49.26667	0.10372
49.26667	0.10517
49.26667	0.10598
49.26667	0.10356
49.26667	0.10356
49.26667	0.10823
49.26667	0.10646
49.26667	0.10598
49.26667	0.10646
49.26667	0.10517
49.26667	0.10695
49.26667	0.10292
49.26667	0.10388
49.26667	0.10469
49.26667	0.10340
49.26667	0.09857
49.26667	0.10485
49.26667	0.10243
49.25000	0.10179
49.25000	0.10405
49.25000	0.10002
49.25000	0.09825
49.21667	0.09953
48.88333	0.09470
48.06667	0.01495
47.33333	-0.00100
47.25000	-0.00116
47.25000	-0.00100
47.25000	0.00110
47.25000	-0.00213
47.25000	-0.00100
47.25000	0.00142
47.25000	-0.00325
47.25000	0.00013
47.26667	-0.00164
47.26667	-0.00342
47.26667	0.00061
47.26667	-0.00052
47.26667	0.08648
47.26667	0.10469
47.26667	0.10372
47.26667	0.10292
47.26667	0.10743
47.26667	0.10759
47.26667	0.10050
47.26667	0.10678
47.26667	0.10276
47.26667	0.10243
47.26667	0.10614
47.26667	0.10614
47.26667	0.10856
47.26667	0.10517
47.26667	0.10791
47.25000	0.10437
47.25000	0.09857
47.25000	0.10453
47.25000	0.10179
47.23333	0.10050
47.21667	0.10050
47.00000	0.10340
46.35000	0.07666
45.78333	-0.00197
45.61667	-0.00035
45.58333	-0.00197
45.58333	0.00126
45.58333	-0.00019
45.58333	-0.00084
45.58333	0.00093
45.58333	0.00222
45.58333	0.00657
45.58333	0.06731
45.58333	0.09003
45.58333	0.09502
45.58333	0.09986
45.58333	0.09551
45.58333	0.10260
45.58333	0.10115
45.58333	0.08294
45.58333	0.07714
45.58333	0.07263
45.58333	0.08085
45.58333	0.08358
45.58333	0.07940
45.58333	0.07923
45.58333	0.08520
45.58333	0.08310
45.58333	0.08536
45.58333	0.08342
45.58333	0.09212
45.58333	0.09228
45.58333	0.10098
45.58333	0.09905
45.58333	0.09680
45.58333	0.09680
45.58333	0.10082
45.58333	0.10260
45.60000	0.09937
45.60000	0.09873
45.58333	0.10437
45.58333	0.10227
45.56667	0.08793
45.55000	0.09486
45.36667	0.09406
44.86667	0.10082
44.50000	0.09760
44.31667	0.09003
44.18333	0.07907
44.11667	0.08052
44.11667	0.07037
44.11667	0.07940
44.11667	0.08391
44.11667	0.09776
44.11667	0.09986
44.11667	0.09164
44.11667	0.05475
44.11667	0.03944
44.11667	0.03219
44.11667	0.04073
44.11667	0.04105
44.11667	0.04733
44.11667	0.05152
44.11667	0.05378
44.11667	0.06167
44.11667	0.06570
44.11667	0.07940
44.13333	0.07972
44.13333	0.08455
44.13333	0.08520
44.13333	0.07875
44.13333	0.08230
44.11667	0.07940
44.11667	0.08149
44.11667	0.07859
44.10000	0.07311
44.10000	0.07231
44.08333	0.07182
44.08333	0.07746
43.95000	0.07247
43.41667	0.08874
42.76667	0.09567
42.46667	0.09406
42.45000	0.09921
42.45000	0.09857
42.45000	0.09970
42.45000	0.09647
42.45000	0.10147
42.45000	0.10437
42.45000	0.09889
42.45000	0.10469
42.45000	0.09841
42.45000	0.09390
42.45000	0.09583
42.45000	0.10034
42.45000	0.10131
42.45000	0.10421
42.46667	0.10243
42.46667	0.09889
42.46667	0.10115
42.46667	0.10485
42.46667	0.10115
42.46667	0.09857
42.46667	0.10533
42.45000	0.10276
42.45000	0.10276
42.45000	0.10066
42.45000	0.10388
42.45000	0.09905
42.43333	0.09889
42.43333	0.09841
42.40000	0.09808
42.06667	0.10195
41.50000	0.09148
41.23333	0.07134
41.21667	0.07263
41.21667	0.07198
41.21667	0.07327
41.20000	0.07070
41.20000	0.07456
41.20000	0.07907
41.20000	0.08890
41.20000	0.09245
41.20000	0.10098
41.20000	0.09825
41.21667	0.07553
41.21667	0.07118
41.21667	0.07231
41.21667	0.07698
41.21667	0.08246
41.21667	0.08101
41.21667	0.08197
41.21667	0.08294
41.21667	0.09647
41.21667	0.09825
41.21667	0.09277
41.21667	0.09680
41.21667	0.09277
41.21667	0.09615
41.21667	0.09647
41.21667	0.09808
41.21667	0.09567
41.21667	0.09100
41.21667	0.08922
41.20000	0.09245
41.20000	0.08971
41.20000	0.09261
41.20000	0.08890
41.18333	0.09228
41.18333	0.09051
41.18333	0.08890
41.15000	0.08681
41.03333	0.08713
40.58333	0.09663
40.26667	0.09776
40.23333	0.09905
40.21667	0.10066
40.20000	0.10018
40.20000	0.09680
40.20000	0.10131
40.20000	0.09792
40.20000	0.10227
40.20000	0.09825
40.20000	0.09647
40.20000	0.10002
40.20000	0.09986
40.20000	0.09825
40.20000	0.09905
40.20000	0.10034
40.20000	0.09680
40.20000	0.08890
40.20000	0.09132
40.20000	0.09551
40.21667	0.09277
40.21667	0.10098
40.21667	0.09873
40.21667	0.10179
40.23333	0.10485
40.25000	0.10453
40.25000	0.11097
40.25000	0.10098
40.25000	0.10002
40.25000	0.09841
40.25000	0.10388
40.25000	0.10131
40.25000	0.10227
40.25000	0.10131
40.25000	0.09970
40.25000	0.09857
40.23333	0.10550
40.23333	0.10260
40.23333	0.09390
40.21667	0.09535
40.21667	0.09486
40.20000	0.09599
40.18333	0.09502
39.53333	0.10340
38.41667	0.00947
37.60000	0.00029
37.51667	0.00029
37.51667	0.00110
37.51667	-0.00148
37.51667	-0.00180
37.51667	0.00045
37.51667	-0.00180
37.53333	-0.00019
37.53333	0.00061
37.53333	0.00061
37.53333	0.00255
37.53333	0.01092
37.53333	0.00802
37.53333	0.03380
37.53333	0.07343
37.53333	0.09422
37.53333	0.09535
37.53333	0.10227
37.53333	0.10340
37.53333	0.10308
37.53333	0.10614
37.53333	0.10050
37.53333	0.10276
37.53333	0.10517
37.53333	0.10211
37.53333	0.10308
37.53333	0.10743
37.53333	0.10018
37.53333	0.09970
37.53333	0.09663
37.53333	0.09889
37.51667	0.09647
37.51667	0.10082
37.51667	0.09696
37.50000	0.10034
37.45000	0.09245
37.05000	0.09390
36.46667	0.01721
36.20000	-0.00197
36.20000	0.00271
36.21667	0.00110
36.21667	0.00190
36.21667	0.02526
36.21667	0.05475
36.21667	0.09406
36.21667	0.10195
36.21667	0.09776
36.21667	0.10018
36.21667	0.09889
36.21667	0.10405
36.21667	0.10179
36.21667	0.09776
36.21667	0.10356
36.21667	0.10098
36.21667	0.10598
36.21667	0.10243
36.21667	0.09953
36.21667	0.10759
36.21667	0.10437
36.21667	0.09905
36.21667	0.10388
36.21667	0.09696
36.21667	0.09663
36.21667	0.10324
36.20000	0.09921
36.20000	0.09889
36.20000	0.10082
36.18333	0.09148
36.18333	0.09341
36.15000	0.09599
35.98333	0.09857
35.63333	0.09873
35.43333	0.09486
35.41667	0.09792
35.41667	0.09744
35.41667	0.09680
35.41667	0.09647
35.41667	0.10098
35.41667	0.10098
35.41667	0.10469
35.41667	0.10260
35.43333	0.09100
35.43333	0.08697
35.43333	0.08793
35.43333	0.09631
35.43333	0.10324
35.43333	0.10098
35.43333	0.10098
35.43333	0.09728
35.43333	0.10453
35.43333	0.09889
35.43333	0.09873
35.43333	0.09486
35.43333	0.09422
35.43333	0.09502
35.43333	0.09406
35.43333	0.09663
35.43333	0.09647
35.43333	0.09631
35.43333	0.09970
35.43333	0.09083
35.43333	0.09937
35.43333	0.09438
35.43333	0.09567
35.43333	0.09615
35.43333	0.10163
35.45000	0.09808
35.45000	0.09551
35.45000	0.09792
35.45000	0.09615
35.45000	0.09518
35.45000	0.09615